# Distance(A) Potential(eV) # E-fermi shifted to 0.0eV
      0.00000       3.97914
      0.08257       3.97973
      0.16515       3.98028
      0.24772       3.98088
      0.33030       3.98143
      0.41287       3.98202
      0.49545       3.98257
      0.57802       3.98316
      0.66060       3.98371
      0.74317       3.98430
      0.82575       3.98484
      0.90832       3.98543
      0.99090       3.98597
      1.07347       3.98656
      1.15605       3.98710
      1.23862       3.98769
      1.32120       3.98823
      1.40377       3.98881
      1.48635       3.98935
      1.56892       3.98993
      1.65150       3.99047
      1.73407       3.99105
      1.81665       3.99158
      1.89922       3.99216
      1.98180       3.99269
      2.06437       3.99327
      2.14695       3.99380
      2.22952       3.99438
      2.31210       3.99491
      2.39467       3.99548
      2.47725       3.99601
      2.55982       3.99658
      2.64239       3.99711
      2.72497       3.99768
      2.80754       3.99821
      2.89012       3.99878
      2.97269       3.99930
      3.05527       3.99987
      3.13784       4.00040
      3.22042       4.00096
      3.30299       4.00149
      3.38557       4.00206
      3.46814       4.00258
      3.55072       4.00315
      3.63329       4.00367
      3.71587       4.00423
      3.79844       4.00475
      3.88102       4.00532
      3.96359       4.00584
      4.04617       4.00641
      4.12874       4.00692
      4.21132       4.00749
      4.29389       4.00800
      4.37647       4.00856
      4.45904       4.00907
      4.54162       4.00963
      4.62419       4.01013
      4.70677       4.01068
      4.78934       4.01117
      4.87192       4.01170
      4.95449       4.01217
      5.03706       4.01268
      5.11964       4.01313
      5.20221       4.01360
      5.28479       4.01400
      5.36736       4.01443
      5.44994       4.01476
      5.53251       4.01511
      5.61509       4.01535
      5.69766       4.01559
      5.78024       4.01569
      5.86281       4.01576
      5.94539       4.01566
      6.02796       4.01548
      6.11054       4.01509
      6.19311       4.01456
      6.27569       4.01374
      6.35826       4.01269
      6.44084       4.01125
      6.52341       4.00947
      6.60599       4.00713
      6.68856       4.00427
      6.77114       4.00064
      6.85371       3.99624
      6.93629       3.99076
      7.01886       3.98414
      7.10144       3.97599
      7.18401       3.96618
      7.26659       3.95420
      7.34916       3.93980
      7.43174       3.92233
      7.51431       3.90138
      7.59688       3.87606
      7.67946       3.84573
      7.76203       3.80920
      7.84461       3.76552
      7.92718       3.71306
      8.00976       3.65043
      8.09233       3.57544
      8.17491       3.48610
      8.25748       3.37946
      8.34006       3.25272
      8.42263       3.10192
      8.50521       2.92320
      8.58778       2.71116
      8.67036       2.46046
      8.75293       2.16416
      8.83551       1.81417
      8.91808       1.40011
      9.00066       0.92303
      9.08323       0.37853
      9.16581      -0.25806
      9.24838      -1.00202
      9.33096      -1.84949
      9.41353      -2.77728
      9.49611      -3.75149
      9.57868      -4.73952
      9.66126      -5.72649
      9.74383      -6.68813
      9.82641      -7.59934
      9.90898      -8.43459
      9.99156      -9.16401
     10.07413      -9.75764
     10.15670     -10.18645
     10.23928     -10.42511
     10.32185     -10.45482
     10.40443     -10.26514
     10.48700      -9.85524
     10.56958      -9.23503
     10.65215      -8.42614
     10.73473      -7.46284
     10.81730      -6.39172
     10.89988      -5.26979
     10.98245      -4.15972
     11.06503      -3.12436
     11.14760      -2.22272
     11.23018      -1.50293
     11.31275      -0.99867
     11.39533      -0.72555
     11.47790      -0.65180
     11.56048      -0.74516
     11.64305      -1.02128
     11.72563      -1.48482
     11.80820      -2.11916
     11.89078      -2.89367
     11.97335      -3.76708
     12.05593      -4.69265
     12.13850      -5.62243
     12.22108      -6.50815
     12.30365      -7.30650
     12.38623      -7.98088
     12.46880      -8.50392
     12.55138      -8.85684
     12.63395      -9.02993
     12.71652      -9.02117
     12.79910      -8.83630
     12.88167      -8.48733
     12.96425      -7.99216
     13.04682      -7.37245
     13.12940      -6.65332
     13.21197      -5.86243
     13.29455      -5.02777
     13.37712      -4.18162
     13.45970      -3.35500
     13.54227      -2.57863
     13.62485      -1.89695
     13.70742      -1.34837
     13.79000      -0.97713
     13.87257      -0.82034
     13.95515      -0.89621
     14.03772      -1.20068
     14.12030      -1.71488
     14.20287      -2.40522
     14.28545      -3.22609
     14.36802      -4.13553
     14.45060      -5.09627
     14.53317      -6.07347
     14.61575      -7.02947
     14.69832      -7.92751
     14.78090      -8.72989
     14.86347      -9.39973
     14.94605      -9.90357
     15.02862     -10.21308
     15.11119     -10.30800
     15.19377     -10.17742
     15.27634      -9.82167
     15.35892      -9.25273
     15.44149      -8.49575
     15.52407      -7.58846
     15.60664      -6.58107
     15.68922      -5.53237
     15.77179      -4.50567
     15.85437      -3.56208
     15.93694      -2.75310
     16.01952      -2.11386
     16.10209      -1.67935
     16.18467      -1.45357
     16.26724      -1.43183
     16.34982      -1.61294
     16.43239      -1.98000
     16.51497      -2.51317
     16.59754      -3.19102
     16.68012      -3.97647
     16.76269      -4.83009
     16.84527      -5.71272
     16.92784      -6.58048
     17.01042      -7.41387
     17.09299      -8.19908
     17.17557      -8.89961
     17.25814      -9.46563
     17.34072      -9.85169
     17.42329     -10.03038
     17.50587      -9.99362
     17.58844      -9.76543
     17.67101      -9.37679
     17.75359      -8.84346
     17.83616      -8.17237
     17.91874      -7.37359
     18.00131      -6.47157
     18.08389      -5.51118
     18.16646      -4.56402
     18.24904      -3.68776
     18.33161      -2.90075
     18.41419      -2.17035
     18.49676      -1.46374
     18.57934      -0.78949
     18.66191      -0.15722
     18.74449       0.42182
     18.82706       0.93109
     18.90964       1.37003
     18.99221       1.75649
     19.07479       2.11176
     19.15736       2.43538
     19.23994       2.72507
     19.32251       2.97106
     19.40509       3.16576
     19.48766       3.31047
     19.57024       3.42344
     19.65281       3.51714
     19.73539       3.59256
     19.81796       3.65363
     19.90054       3.70310
     19.98311       3.74335
     20.06569       3.77618
     20.14826       3.80300
     20.23083       3.82500
     20.31341       3.84305
     20.39598       3.85796
     20.47856       3.87023
     20.56113       3.88044
     20.64371       3.88887
     20.72628       3.89595
     20.80886       3.90183
     20.89143       3.90681
     20.97401       3.91098
     21.05658       3.91456
     21.13916       3.91757
     21.22173       3.92020
     21.30431       3.92243
     21.38688       3.92443
     21.46946       3.92614
     21.55203       3.92770
     21.63461       3.92906
     21.71718       3.93034
     21.79976       3.93145
     21.88233       3.93254
     21.96491       3.93349
     22.04748       3.93444
     22.13006       3.93530
     22.21263       3.93616
     22.29521       3.93694
     22.37778       3.93774
     22.46036       3.93847
     22.54293       3.93924
     22.62551       3.93994
     22.70808       3.94068
     22.79065       3.94136
     22.87323       3.94208
     22.95580       3.94275
     23.03838       3.94346
     23.12095       3.94412
     23.20353       3.94482
     23.28610       3.94547
     23.36868       3.94617
     23.45125       3.94682
     23.53383       3.94752
     23.61640       3.94816
     23.69898       3.94885
     23.78155       3.94949
     23.86413       3.95018
     23.94670       3.95082
     24.02928       3.95151
     24.11185       3.95214
     24.19443       3.95283
     24.27700       3.95346
     24.35958       3.95414
     24.44215       3.95477
     24.52473       3.95544
     24.60730       3.95607
     24.68988       3.95674
     24.77245       3.95736
     24.85503       3.95803
     24.93760       3.95864
     25.02018       3.95931
     25.10275       3.95992
     25.18532       3.96058
     25.26790       3.96118
     25.35047       3.96184
     25.43305       3.96244
     25.51562       3.96309
     25.59820       3.96368
     25.68077       3.96433
     25.76335       3.96492
     25.84592       3.96556
     25.92850       3.96615
     26.01107       3.96678
     26.09365       3.96736
     26.17622       3.96799
     26.25880       3.96857
     26.34137       3.96920
     26.42395       3.96977
     26.50652       3.97039
     26.58910       3.97096
     26.67167       3.97158
     26.75425       3.97215
     26.83682       3.97276
     26.91940       3.97333
     27.00197       3.97394
     27.08455       3.97450
     27.16712       3.97511
     27.24970       3.97567
     27.33227       3.97627
     27.41485       3.97683
     27.49742       3.97743
     27.58000       3.97798
     27.66257       3.97858
