# Distance(A) Potential(eV) # E-fermi shifted to 0.0eV
      0.00000       4.00368
      0.08257       4.00393
      0.16515       4.00417
      0.24772       4.00442
      0.33030       4.00466
      0.41287       4.00491
      0.49545       4.00514
      0.57802       4.00539
      0.66060       4.00562
      0.74317       4.00586
      0.82575       4.00609
      0.90832       4.00634
      0.99090       4.00656
      1.07347       4.00681
      1.15605       4.00703
      1.23862       4.00727
      1.32120       4.00749
      1.40377       4.00773
      1.48635       4.00795
      1.56892       4.00819
      1.65150       4.00841
      1.73407       4.00865
      1.81665       4.00886
      1.89922       4.00910
      1.98180       4.00931
      2.06437       4.00955
      2.14695       4.00976
      2.22952       4.01000
      2.31210       4.01021
      2.39467       4.01044
      2.47725       4.01065
      2.55982       4.01089
      2.64239       4.01110
      2.72497       4.01133
      2.80754       4.01154
      2.89012       4.01178
      2.97269       4.01198
      3.05527       4.01222
      3.13784       4.01243
      3.22042       4.01267
      3.30299       4.01287
      3.38557       4.01311
      3.46814       4.01332
      3.55072       4.01356
      3.63329       4.01377
      3.71587       4.01402
      3.79844       4.01422
      3.88102       4.01447
      3.96359       4.01468
      4.04617       4.01493
      4.12874       4.01514
      4.21132       4.01538
      4.29389       4.01559
      4.37647       4.01584
      4.45904       4.01605
      4.54162       4.01629
      4.62419       4.01650
      4.70677       4.01674
      4.78934       4.01693
      4.87192       4.01716
      4.95449       4.01733
      5.03706       4.01754
      5.11964       4.01769
      5.20221       4.01787
      5.28479       4.01798
      5.36736       4.01812
      5.44994       4.01816
      5.53251       4.01822
      5.61509       4.01818
      5.69766       4.01813
      5.78024       4.01795
      5.86281       4.01773
      5.94539       4.01735
      6.02796       4.01690
      6.11054       4.01623
      6.19311       4.01542
      6.27569       4.01432
      6.35826       4.01301
      6.44084       4.01129
      6.52341       4.00924
      6.60599       4.00663
      6.68856       4.00351
      6.77114       3.99961
      6.85371       3.99495
      6.93629       3.98920
      7.01886       3.98232
      7.10144       3.97391
      7.18401       3.96384
      7.26659       3.95160
      7.34916       3.93696
      7.43174       3.91924
      7.51431       3.89804
      7.59688       3.87247
      7.67946       3.84191
      7.76203       3.80514
      7.84461       3.76123
      7.92718       3.70855
      8.00976       3.64570
      8.09233       3.57050
      8.17491       3.48097
      8.25748       3.37413
      8.34006       3.24722
      8.42263       3.09624
      8.50521       2.91738
      8.58778       2.70520
      8.67036       2.45440
      8.75293       2.15800
      8.83551       1.80797
      8.91808       1.39389
      9.00066       0.91683
      9.08323       0.37238
      9.16581      -0.26407
      9.24838      -1.00786
      9.33096      -1.85506
      9.41353      -2.78254
      9.49611      -3.75633
      9.57868      -4.74387
      9.66126      -5.73023
      9.74383      -6.69122
      9.82641      -7.60169
      9.90898      -8.43625
      9.99156      -9.16502
     10.07413      -9.75818
     10.15670     -10.18665
     10.23928     -10.42522
     10.32185     -10.45497
     10.40443     -10.26551
     10.48700      -9.85589
     10.56958      -9.23604
     10.65215      -8.42749
     10.73473      -7.46459
     10.81730      -6.39386
     10.89988      -5.27241
     10.98245      -4.16281
     11.06503      -3.12799
     11.14760      -2.22682
     11.23018      -1.50747
     11.31275      -1.00349
     11.39533      -0.73053
     11.47790      -0.65670
     11.56048      -0.74980
     11.64305      -1.02540
     11.72563      -1.48829
     11.80820      -2.12177
     11.89078      -2.89545
     11.97335      -3.76801
     12.05593      -4.69300
     12.13850      -5.62242
     12.22108      -6.50818
     12.30365      -7.30675
     12.38623      -7.98161
     12.46880      -8.50504
     12.55138      -8.85832
     12.63395      -9.03144
     12.71652      -9.02261
     12.79910      -8.83742
     12.88167      -8.48830
     12.96425      -7.99303
     13.04682      -7.37376
     13.12940      -6.65538
     13.21197      -5.86602
     13.29455      -5.03336
     13.37712      -4.18983
     13.45970      -3.36647
     13.54227      -2.59533
     13.62485      -1.91777
     13.70742      -1.37729
     13.79000      -1.00817
     13.87257      -0.82799
     13.95515      -0.84179
     14.03772      -1.05454
     14.12030      -1.47268
     14.20287      -2.07785
     14.28545      -2.84185
     14.36802      -3.72521
     14.45060      -4.68291
     14.53317      -5.67965
     14.61575      -6.67204
     14.69832      -7.61740
     14.78090      -8.47498
     14.86347      -9.20475
     14.94605      -9.77212
     15.02862     -10.14823
     15.11119     -10.31239
     15.19377     -10.25273
     15.27634      -9.96752
     15.35892      -9.46532
     15.44149      -8.76581
     15.52407      -7.89962
     15.60664      -6.90790
     15.68922      -5.84067
     15.77179      -4.75478
     15.85437      -3.71042
     15.93694      -2.76423
     16.01952      -1.97029
     16.10209      -1.36271
     16.18467      -0.95530
     16.26724      -0.77688
     16.34982      -0.83841
     16.43239      -1.13508
     16.51497      -1.65385
     16.59754      -2.36351
     16.68012      -3.21745
     16.76269      -4.16393
     16.84527      -5.15850
     16.92784      -6.17502
     17.01042      -7.18117
     17.09299      -8.13488
     17.17557      -8.99491
     17.25814      -9.71342
     17.34072     -10.25023
     17.42329     -10.58295
     17.50587     -10.70899
     17.58844     -10.63854
     17.67101     -10.39985
     17.75359     -10.02693
     17.83616      -9.54863
     17.91874      -9.01417
     18.00131      -8.46318
     18.08389      -7.91637
     18.16646      -7.40255
     18.24904      -6.92551
     18.33161      -6.44966
     18.41419      -5.93429
     18.49676      -5.34967
     18.57934      -4.66475
     18.66191      -3.87103
     18.74449      -2.99301
     18.82706      -2.06693
     18.90964      -1.12432
     18.99221      -0.20447
     19.07479       0.65173
     19.15736       1.40691
     19.23994       2.02985
     19.32251       2.51901
     19.40509       2.88395
     19.48766       3.13741
     19.57024       3.32575
     19.65281       3.47439
     19.73539       3.58758
     19.81796       3.67440
     19.90054       3.74093
     19.98311       3.79233
     20.06569       3.83200
     20.14826       3.86287
     20.23083       3.88686
     20.31341       3.90566
     20.39598       3.92036
     20.47856       3.93197
     20.56113       3.94110
     20.64371       3.94838
     20.72628       3.95414
     20.80886       3.95878
     20.89143       3.96249
     20.97401       3.96552
     21.05658       3.96796
     21.13916       3.96999
     21.22173       3.97165
     21.30431       3.97307
     21.38688       3.97424
     21.46946       3.97527
     21.55203       3.97615
     21.63461       3.97694
     21.71718       3.97763
     21.79976       3.97827
     21.88233       3.97884
     21.96491       3.97939
     22.04748       3.97989
     22.13006       3.98037
     22.21263       3.98083
     22.29521       3.98128
     22.37778       3.98172
     22.46036       3.98215
     22.54293       3.98256
     22.62551       3.98298
     22.70808       3.98339
     22.79065       3.98380
     22.87323       3.98420
     22.95580       3.98460
     23.03838       3.98500
     23.12095       3.98540
     23.20353       3.98580
     23.28610       3.98620
     23.36868       3.98660
     23.45125       3.98699
     23.53383       3.98739
     23.61640       3.98778
     23.69898       3.98817
     23.78155       3.98856
     23.86413       3.98895
     23.94670       3.98934
     24.02928       3.98973
     24.11185       3.99011
     24.19443       3.99049
     24.27700       3.99086
     24.35958       3.99124
     24.44215       3.99161
     24.52473       3.99198
     24.60730       3.99235
     24.68988       3.99271
     24.77245       3.99307
     24.85503       3.99343
     24.93760       3.99378
     25.02018       3.99413
     25.10275       3.99447
     25.18532       3.99481
     25.26790       3.99514
     25.35047       3.99548
     25.43305       3.99581
     25.51562       3.99614
     25.59820       3.99645
     25.68077       3.99677
     25.76335       3.99708
     25.84592       3.99740
     25.92850       3.99770
     26.01107       3.99801
     26.09365       3.99830
     26.17622       3.99860
     26.25880       3.99889
     26.34137       3.99918
     26.42395       3.99946
     26.50652       3.99975
     26.58910       4.00002
     26.67167       4.00030
     26.75425       4.00057
     26.83682       4.00085
     26.91940       4.00111
     27.00197       4.00138
     27.08455       4.00164
     27.16712       4.00191
     27.24970       4.00216
     27.33227       4.00243
     27.41485       4.00267
     27.49742       4.00294
     27.58000       4.00318
     27.66257       4.00344
