# Distance(A) Potential(eV) # E-fermi shifted to 0.0eV
      0.00000       4.07615
      0.08257       4.07591
      0.16515       4.07564
      0.24772       4.07541
      0.33030       4.07514
      0.41287       4.07491
      0.49545       4.07464
      0.57802       4.07441
      0.66060       4.07414
      0.74317       4.07391
      0.82575       4.07365
      0.90832       4.07341
      0.99090       4.07315
      1.07347       4.07292
      1.15605       4.07265
      1.23862       4.07242
      1.32120       4.07215
      1.40377       4.07192
      1.48635       4.07165
      1.56892       4.07142
      1.65150       4.07115
      1.73407       4.07091
      1.81665       4.07064
      1.89922       4.07039
      1.98180       4.07012
      2.06437       4.06987
      2.14695       4.06959
      2.22952       4.06934
      2.31210       4.06905
      2.39467       4.06880
      2.47725       4.06851
      2.55982       4.06825
      2.64239       4.06795
      2.72497       4.06769
      2.80754       4.06738
      2.89012       4.06711
      2.97269       4.06680
      3.05527       4.06652
      3.13784       4.06620
      3.22042       4.06592
      3.30299       4.06559
      3.38557       4.06531
      3.46814       4.06497
      3.55072       4.06468
      3.63329       4.06434
      3.71587       4.06404
      3.79844       4.06369
      3.88102       4.06338
      3.96359       4.06303
      4.04617       4.06271
      4.12874       4.06235
      4.21132       4.06203
      4.29389       4.06166
      4.37647       4.06133
      4.45904       4.06095
      4.54162       4.06062
      4.62419       4.06022
      4.70677       4.05988
      4.78934       4.05947
      4.87192       4.05910
      4.95449       4.05867
      5.03706       4.05829
      5.11964       4.05783
      5.20221       4.05740
      5.28479       4.05690
      5.36736       4.05642
      5.44994       4.05585
      5.53251       4.05530
      5.61509       4.05464
      5.69766       4.05398
      5.78024       4.05318
      5.86281       4.05236
      5.94539       4.05135
      6.02796       4.05029
      6.11054       4.04900
      6.19311       4.04758
      6.27569       4.04587
      6.35826       4.04394
      6.44084       4.04161
      6.52341       4.03895
      6.60599       4.03573
      6.68856       4.03200
      6.77114       4.02750
      6.85371       4.02223
      6.93629       4.01587
      7.01886       4.00839
      7.10144       3.99936
      7.18401       3.98869
      7.26659       3.97583
      7.34916       3.96058
      7.43174       3.94223
      7.51431       3.92042
      7.59688       3.89421
      7.67946       3.86302
      7.76203       3.82560
      7.84461       3.78103
      7.92718       3.72767
      8.00976       3.66414
      8.09233       3.58823
      8.17491       3.49798
      8.25748       3.39038
      8.34006       3.26271
      8.42263       3.11093
      8.50521       2.93126
      8.58778       2.71823
      8.67036       2.46657
      8.75293       2.16927
      8.83551       1.81834
      8.91808       1.40332
      9.00066       0.92534
      9.08323       0.37996
      9.16581      -0.25741
      9.24838      -1.00210
      9.33096      -1.85018
      9.41353      -2.77853
      9.49611      -3.75320
      9.57868      -4.74168
      9.66126      -5.72904
      9.74383      -6.69111
      9.82641      -7.60270
      9.90898      -8.43836
      9.99156      -9.16809
     10.07413      -9.76193
     10.15670     -10.19071
     10.23928     -10.42911
     10.32185     -10.45821
     10.40443     -10.26767
     10.48700      -9.85662
     10.56958      -9.23516
     10.65215      -8.42494
     10.73473      -7.46046
     10.81730      -6.38833
     10.89988      -5.26575
     10.98245      -4.15529
     11.06503      -3.11994
     11.14760      -2.21855
     11.23018      -1.49930
     11.31275      -0.99573
     11.39533      -0.72350
     11.47790      -0.65067
     11.56048      -0.74507
     11.64305      -1.02218
     11.72563      -1.48678
     11.80820      -2.12207
     11.89078      -2.89754
     11.97335      -3.77176
     12.05593      -4.69815
     12.13850      -5.62859
     12.22108      -6.51500
     12.30365      -7.31389
     12.38623      -7.98890
     12.46880      -8.51252
     12.55138      -8.86626
     12.63395      -9.04032
     12.71652      -9.03298
     12.79910      -8.84985
     12.88167      -8.50328
     12.96425      -8.01088
     13.04682      -7.39465
     13.12940      -6.67933
     13.21197      -5.89294
     13.29455      -5.06304
     13.37712      -4.22231
     13.45970      -3.40143
     13.54227      -2.63145
     13.62485      -1.95652
     13.70742      -1.41780
     13.79000      -1.05204
     13.87257      -0.89700
     13.95515      -0.97519
     14.03772      -1.28161
     14.12030      -1.79999
     14.20287      -2.49469
     14.28545      -3.31619
     14.36802      -4.22530
     14.45060      -5.17476
     14.53317      -6.12824
     14.61575      -7.05586
     14.69832      -7.92056
     14.78090      -8.69086
     14.86347      -9.33342
     14.94605      -9.81787
     15.02862     -10.11751
     15.11119     -10.21228
     15.19377     -10.08992
     15.27634      -9.74892
     15.35892      -9.19896
     15.44149      -8.46287
     15.52407      -7.57615
     15.60664      -6.58697
     15.68922      -5.55290
     15.77179      -4.53690
     15.85437      -3.60138
     15.93694      -2.80180
     16.01952      -2.18071
     16.10209      -1.76969
     16.18467      -1.57583
     16.26724      -1.58028
     16.34982      -1.76395
     16.43239      -2.11979
     16.51497      -2.64045
     16.59754      -3.30468
     16.68012      -4.07563
     16.76269      -4.91116
     16.84527      -5.76616
     16.92784      -6.59668
     17.01042      -7.36136
     17.09299      -8.02388
     17.17557      -8.55419
     17.25814      -8.93000
     17.34072      -9.13664
     17.42329      -9.16717
     17.50587      -9.02164
     17.58844      -8.70706
     17.67101      -8.23675
     17.75359      -7.63025
     17.83616      -6.91191
     17.91874      -6.10973
     18.00131      -5.25261
     18.08389      -4.36928
     18.16646      -3.48309
     18.24904      -2.61499
     18.33161      -1.78313
     18.41419      -1.00017
     18.49676      -0.28610
     18.57934       0.34728
     18.66191       0.89666
     18.74449       1.37567
     18.82706       1.79535
     18.90964       2.15622
     18.99221       2.46368
     19.07479       2.72354
     19.15736       2.94337
     19.23994       3.12890
     19.32251       3.28522
     19.40509       3.41687
     19.48766       3.52757
     19.57024       3.62056
     19.65281       3.69860
     19.73539       3.76401
     19.81796       3.81879
     19.90054       3.86460
     19.98311       3.90291
     20.06569       3.93489
     20.14826       3.96158
     20.23083       3.98383
     20.31341       4.00237
     20.39598       4.01780
     20.47856       4.03065
     20.56113       4.04131
     20.64371       4.05017
     20.72628       4.05751
     20.80886       4.06359
     20.89143       4.06862
     20.97401       4.07277
     21.05658       4.07619
     21.13916       4.07900
     21.22173       4.08129
     21.30431       4.08317
     21.38688       4.08470
     21.46946       4.08593
     21.55203       4.08692
     21.63461       4.08771
     21.71718       4.08834
     21.79976       4.08882
     21.88233       4.08919
     21.96491       4.08947
     22.04748       4.08966
     22.13006       4.08979
     22.21263       4.08987
     22.29521       4.08990
     22.37778       4.08990
     22.46036       4.08987
     22.54293       4.08981
     22.62551       4.08973
     22.70808       4.08964
     22.79065       4.08952
     22.87323       4.08940
     22.95580       4.08927
     23.03838       4.08913
     23.12095       4.08898
     23.20353       4.08883
     23.28610       4.08867
     23.36868       4.08851
     23.45125       4.08834
     23.53383       4.08817
     23.61640       4.08799
     23.69898       4.08782
     23.78155       4.08763
     23.86413       4.08745
     23.94670       4.08725
     24.02928       4.08707
     24.11185       4.08687
     24.19443       4.08667
     24.27700       4.08647
     24.35958       4.08627
     24.44215       4.08606
     24.52473       4.08585
     24.60730       4.08563
     24.68988       4.08542
     24.77245       4.08519
     24.85503       4.08498
     24.93760       4.08474
     25.02018       4.08452
     25.10275       4.08428
     25.18532       4.08406
     25.26790       4.08381
     25.35047       4.08358
     25.43305       4.08333
     25.51562       4.08310
     25.59820       4.08284
     25.68077       4.08260
     25.76335       4.08234
     25.84592       4.08210
     25.92850       4.08184
     26.01107       4.08159
     26.09365       4.08133
     26.17622       4.08108
     26.25880       4.08081
     26.34137       4.08056
     26.42395       4.08029
     26.50652       4.08004
     26.58910       4.07977
     26.67167       4.07952
     26.75425       4.07925
     26.83682       4.07900
     26.91940       4.07873
     27.00197       4.07848
     27.08455       4.07821
     27.16712       4.07796
     27.24970       4.07769
     27.33227       4.07744
     27.41485       4.07717
     27.49742       4.07693
     27.58000       4.07666
     27.66257       4.07642
